eventfile for the exclsuive pi0 BSA analysis cross check
contact: Stefan Diehl (sdiehl@jlab.org)
---------------------------------------------------------------------------------------------------------------------
eventnumber	x	Q2	W	-t	phi[deg]	Mgg
---------------------------------------------------------------------------------------------------------------------
20405	0.239315	2.72757	3.09033	1.3326	132.282	0.136651
23622	0.436471	3.24192	2.25078	0.599975	111.898	0.134297
114172	0.53255	4.74987	2.24712	1.4593	190.758	0.154788
169042	0.308519	2.28225	2.44857	0.305766	125.492	0.152683
206831	0.296359	2.07225	2.40841	2.4756	279.243	0.150811
224080	0.434345	4.29078	2.54328	0.668672	111.203	0.129886
252536	0.441824	2.97788	2.15463	0.978844	136.136	0.158281
316568	0.628784	6.79949	2.21236	1.84711	243.052	0.120297
337891	0.528077	5.08808	2.32967	1.48785	111.208	0.127052
347365	0.360122	3.65716	2.71634	0.559845	201.895	0.129466
355004	0.515288	4.55597	2.27288	1.53266	127.749	0.133337
495935	0.384816	2.5095	2.21182	0.651435	230.168	0.126758
713976	0.330474	2.07277	2.25381	0.48924	237.795	0.137781
794237	0.425684	3.72891	2.4313	0.502345	172.716	0.150344
803453	0.356055	3.61355	2.72317	0.835574	128.203	0.148244
817075	0.312217	2.43462	2.49871	0.623298	127.152	0.146528
861460	0.455946	3.74336	2.31238	1.12016	146.396	0.135481
1018639	0.305576	2.47803	2.5518	0.420996	169.416	0.138703
1034379	0.310675	2.19912	2.39994	0.341701	197.798	0.118801
1205822	0.346867	2.91332	2.52309	0.650293	235.357	0.147968
1309747	0.550674	5.90718	2.38754	0.688394	118.934	0.121958
1329345	0.375839	2.99914	2.42096	0.376143	97.1508	0.130941
1357574	0.53092	6.63928	2.59736	0.900716	102.831	0.121338
1380959	0.534492	4.56444	2.20356	0.887832	158.025	0.142048
1466896	0.465979	4.35924	2.42407	0.587334	91.2458	0.154687
1501811	0.383539	2.96497	2.37611	0.284764	62.3789	0.118277
1519903	0.702793	8.84135	2.14925	1.72321	293.365	0.120511
1612212	0.415458	4.61439	2.71527	0.810184	115.89	0.12643
1645011	0.374489	2.75237	2.34043	0.334837	240.106	0.136924
1674258	0.470012	4.18669	2.3667	0.401909	21.2204	0.135367
1739647	0.260747	2.90329	3.01853	0.586136	167.464	0.131267
1790607	0.301581	2.8004	2.71397	0.439049	143.853	0.130233
1843158	0.321946	4.28814	3.14828	1.92729	187.308	0.143905
1884152	0.393351	4.27832	2.7347	0.259351	260.445	0.14433
2143630	0.565947	6.97378	2.49577	2.96449	84.6439	0.146364
2165759	0.266562	3.54306	3.26021	0.294781	181.066	0.134463
2209875	0.378862	2.35271	2.1766	0.691859	222.807	0.133193
2340687	0.420889	3.35961	2.34583	0.521356	74.0928	0.120937
2340763	0.527856	5.74837	2.45398	0.994895	168.957	0.122693
2355453	0.366771	2.31051	2.20668	0.780409	230.206	0.137268
2386702	0.224548	2.56514	3.1207	0.501091	182.186	0.134791
2432928	0.430559	2.5875	2.07424	0.453669	117.483	0.12851
2520958	0.428584	4.18624	2.54199	2.53661	111.746	0.140941
2703621	0.603156	5.15431	2.06678	1.21647	44.6932	0.141558
2823108	0.353988	4.4906	3.01255	0.260958	174.222	0.126134
2841881	0.584247	5.85521	2.24654	0.74183	286.928	0.127751
2966469	0.325158	4.20293	3.09891	2.60585	270.248	0.131254
2998745	0.344149	2.50279	2.37696	0.274049	146.746	0.135228
3012938	0.420142	3.36783	2.35126	0.442373	256.521	0.133812
3027498	0.500783	3.83917	2.16968	0.521929	97.5641	0.136355
3038307	0.549918	3.9645	2.03103	2.14725	291.991	0.136769
3169023	0.373339	2.5106	2.25709	0.465886	130.23	0.141775
3175063	0.291009	2.13581	2.46655	3.31095	74.249	0.128726
3381033	0.361869	2.58652	2.3327	0.439149	152.575	0.142062
3400118	0.499429	6.1421	2.65263	2.84017	142.563	0.127121
3410289	0.351627	4.81613	3.12424	1.4429	130.229	0.129846
3457686	0.506419	3.59621	2.09413	0.543356	267.082	0.144596
3464399	0.323272	2.93246	2.64935	0.520075	117.78	0.127975
3511415	0.301308	2.86358	2.74237	1.97463	154.385	0.126239
3554477	0.208093	2.52069	3.23618	1.31914	196.323	0.1157
3582501	0.283222	2.51594	2.69215	1.28469	191.442	0.128541
3882057	0.355205	2.58394	2.36027	0.531513	196.84	0.13542
3983090	0.333435	2.71669	2.51221	0.842454	115.551	0.135258
4055497	0.444632	2.68541	2.0578	0.649006	230.121	0.131054
4063349	0.448496	3.27406	2.21503	0.87563	120.845	0.145144
4099883	0.561688	7.18483	2.54696	0.797899	10.9267	0.148266
4167194	0.185821	2.2156	3.25393	2.53772	264.786	0.127288
4232311	0.435901	2.69639	2.09039	1.00814	109.021	0.129468
4394476	0.53586	4.15744	2.11692	1.55876	281.564	0.146412
4488990	0.381462	2.70227	2.29391	0.44644	183.366	0.126348
4663168	0.468835	3.21089	2.12558	3.21865	68.852	0.136687
4730159	0.642063	5.98795	2.0539	4.39035	313.762	0.131167
4852404	0.305923	2.65712	2.62846	1.40832	243.512	0.135394
4957938	0.392459	4.01185	2.66286	0.719398	200.574	0.131364
5186083	0.419769	2.99663	2.24108	0.473112	84.6573	0.132155
5212183	0.367407	3.22868	2.5376	0.761696	206.428	0.127788
5224596	0.264479	3.41777	3.22261	1.13863	236.076	0.122601
5276566	0.638261	6.02041	2.07182	0.934408	116.939	0.14633
5279690	0.423967	2.6452	2.11525	1.07383	142.059	0.126335
5294196	0.476936	6.04918	2.74127	0.427992	292.706	0.134802
5511340	0.32821	2.18559	2.31384	0.431207	155.108	0.144241
5656151	0.530434	4.342	2.17349	0.687367	57.3466	0.142971
5696699	0.440682	5.01319	2.6913	0.562118	70.3133	0.1408
6050574	0.374616	4.57202	2.91768	1.13851	207.445	0.114446
6061577	0.414671	2.75484	2.18379	0.394087	273.526	0.131538
6163874	0.283275	2.85398	2.84628	0.483584	151.58	0.141634
6337438	0.287946	2.16942	2.49901	1.10196	189.167	0.132975
6338057	0.258508	3.01906	3.0887	0.419794	202.735	0.126975
6375503	0.344016	3.38495	2.7083	1.59095	177.101	0.120917
6399022	0.471774	5.99897	2.75629	1.84841	176.307	0.156645
6568207	0.474083	3.12336	2.08451	1.48741	85.6902	0.112093
6665287	0.561087	5.146	2.21491	0.549077	60.8075	0.12618
6779891	0.565395	7.20907	2.53412	0.62682	344.098	0.121292
6912822	0.293012	2.83514	2.77867	1.0755	225.485	0.133113
6948296	0.296802	2.95064	2.80555	0.842124	219.152	0.148321
6952690	0.577261	4.86408	2.1077	0.870005	314.322	0.15691
7095820	0.503013	7.1006	2.80996	1.84033	250.188	0.144068
7146538	0.306256	2.65536	2.6259	1.15968	168.913	0.117898
7188858	0.401155	2.25329	2.06011	0.337761	223.555	0.129982
7216727	0.451102	4.99118	2.63696	1.22325	175.548	0.11738
7236750	0.606788	6.2205	2.21616	0.92537	18.161	0.132726
7328865	0.357036	2.56824	2.34634	0.40142	92.9965	0.128602
7353937	0.408431	2.90421	2.25539	0.380881	96.2736	0.130915
7368272	0.376002	2.78263	2.34484	0.674378	256.911	0.123587
7684884	0.25572	2.31948	2.76247	0.634518	190.591	0.118549
7816210	0.31599	2.26724	2.40586	1.03287	137.841	0.121746
7825858	0.456972	4.74526	2.55327	0.787258	264.74	0.133003
7827572	0.431374	3.83132	2.4353	1.97276	99.9417	0.159489
7897485	0.429147	3.43307	2.33388	2.16889	81.2337	0.123188
8111074	0.413403	3.01215	2.27033	0.592036	257.328	0.12109
8139216	0.244746	2.28051	2.81384	0.66803	217.938	0.130198
8190677	0.483415	4.11213	2.29666	0.633848	141.736	0.124586
8232726	0.381095	3.50013	2.56215	0.283877	320.134	0.145399
8372059	0.394301	2.34682	2.11787	0.482388	131.832	0.134621
8451408	0.430134	2.81441	2.14686	0.539713	88.0462	0.131743
8512850	0.37063	3.3745	2.57111	0.538317	209.504	0.143246
8514487	0.255375	2.44181	2.82846	1.75355	163.78	0.143778
8648886	0.401017	4.30236	2.70307	0.459168	201.306	0.120234
8724225	0.378643	3.68534	2.63211	0.519142	167.919	0.128945
9027336	0.573484	5.66691	2.2572	0.696751	70.6193	0.129281
9091561	0.500068	3.89034	2.18395	1.462	266.437	0.148969
9160340	0.213768	2.18572	2.98653	1.84832	128.221	0.13743
9239027	0.342213	3.04864	2.59621	0.863343	108.666	0.114977
9388090	0.225321	2.00138	2.78591	0.440259	159.891	0.127516
9393921	0.31296	2.61856	2.57465	0.566844	236.003	0.121593
9446875	0.404906	4.05465	2.61524	0.814001	148.208	0.137661
9613625	0.397577	2.17602	2.0439	0.627014	277.807	0.13151
9730005	0.251942	2.91509	3.088	0.320209	192.358	0.14634
9739061	0.404626	2.86137	2.25624	0.616929	222.334	0.132423
9805546	0.307429	2.55103	2.57435	0.750305	159.155	0.142123
10107566	0.371905	3.00566	2.44059	0.902715	183.952	0.141681
10111523	0.377642	2.66427	2.29588	0.285827	320.097	0.12612
10163358	0.601586	5.78078	2.16997	1.81197	81.1419	0.116562
10175849	0.509111	3.26635	2.00743	0.500185	71.8063	0.128346
10180604	0.324827	2.18767	2.32971	0.999506	134.131	0.111463
10229427	0.607749	6.44758	2.24537	1.03959	118.556	0.119684
10232910	0.527863	4.53154	2.22114	0.535735	279.729	0.116533
10271084	0.502561	3.64547	2.11864	0.776528	220.468	0.133421
10320316	0.376051	2.26401	2.15333	0.754318	124.694	0.130572
10330415	0.390378	3.05818	2.37824	0.243783	248.149	0.148958
10335150	0.324836	2.72526	2.55826	0.934066	207.442	0.140817
10410131	0.608394	5.88545	2.1607	2.97884	279.929	0.117985
10471459	0.427969	2.42372	2.02976	0.532385	287.717	0.135542
10516873	0.435872	3.42591	2.30528	1.51971	150.006	0.129568
10629794	0.30553	2.03577	2.34684	0.365656	131.318	0.122087
10655947	0.380433	2.29607	2.14935	0.491806	126.233	0.128847
10711570	0.247179	2.83624	3.08521	0.442875	136.995	0.12585
10742473	0.501351	3.34443	2.05104	0.97637	108.586	0.141348
10759459	0.348062	3.64614	2.77664	0.559174	146.269	0.12714
10874670	0.615784	5.56233	2.08589	0.763853	78.5459	0.112905
10972499	0.294205	2.36165	2.5585	0.316046	176.798	0.153998
11016175	0.464374	3.64297	2.25439	0.370425	62.4269	0.152463
11168569	0.452598	6.41563	2.93936	1.71865	123.365	0.12956
11178870	0.382467	3.53495	2.56669	1.48708	167.047	0.127834
11185215	0.53781	4.55471	2.18966	0.727208	208.127	0.132008
11190039	0.570504	6.45077	2.39514	0.65793	238.831	0.117314
11199659	0.32439	3.25001	2.76571	0.606045	184.466	0.158973
11318368	0.505765	3.35663	2.03972	0.709711	139.069	0.143911
11424186	0.475162	5.7494	2.68901	1.4047	79.8375	0.126015
11592247	0.486003	3.87035	2.23016	0.404084	251.013	0.12112
11643621	0.439834	3.65995	2.35406	0.381865	274.107	0.137853
11684429	0.378525	2.54994	2.25098	0.41282	129.91	0.12788
11698834	0.371141	3.44335	2.59128	0.262948	94.8891	0.125624
11719395	0.393423	2.12751	2.03973	0.514824	182.492	0.116302
11731488	0.508313	7.11849	2.78675	0.489062	323.338	0.131791
11747110	0.535811	3.9634	2.07701	0.595432	5.2571	0.130142
11790917	0.377764	2.41649	2.20469	1.44768	248.869	0.132163
11820883	0.431331	4.09447	2.50569	0.330247	265.829	0.129549
11910232	0.367695	2.59836	2.3127	0.805868	224.482	0.150956
11959878	0.263433	2.15014	2.6253	1.24162	147.857	0.133861
12103067	0.486796	3.62729	2.16896	2.36502	287.859	0.127788
12336948	0.409754	4.72145	2.77156	3.92887	230.162	0.150946
12540369	0.421406	2.98314	2.23074	2.19242	97.3865	0.11773
12590679	0.353865	2.21111	2.21758	0.730283	180.408	0.134179
12848656	0.298724	2.67701	2.67671	1.92459	143.007	0.125778
12961864	0.192934	2.45088	3.33656	2.6777	250.176	0.138304
13016324	0.370283	4.22139	2.8389	0.494332	118.238	0.12512
13122901	0.582931	4.43206	2.01279	0.871191	250.045	0.140486
13178409	0.441858	4.19077	2.48475	0.548501	96.0673	0.128182
13248878	0.290718	2.32857	2.56154	0.24318	96.2257	0.138261
13313404	0.391476	2.65166	2.23656	0.312894	134.981	0.153338
13329818	0.201144	2.2164	3.11174	0.811635	206.828	0.150422
13430470	0.529604	6.87627	2.64345	0.769507	330.984	0.134699
13525223	0.335673	2.58272	2.44781	0.844881	208.828	0.125786
13592753	0.676321	6.52604	2.0009	2.00546	319.455	0.139693
13688076	0.447808	4.28876	2.48371	3.69317	98.8345	0.130056
13694795	0.319385	2.6114	2.53875	2.99678	284.387	0.126729
13705210	0.290333	2.16328	2.48356	1.4836	265.937	0.1359
13721221	0.475545	5.8519	2.70815	3.18247	91.1759	0.13515
13738616	0.354954	2.99951	2.5162	1.71454	159.671	0.154144
13864866	0.34498	2.17004	2.23621	0.456282	161.665	0.132995
14148159	0.437633	4.95197	2.69141	1.00026	194.51	0.135486
14179725	0.585467	4.8171	2.07148	0.716571	138.87	0.131098
14388831	0.346378	2.89468	2.51846	0.954796	157.378	0.133032
14404469	0.507823	4.57629	2.30556	1.57797	268.211	0.133698
14439529	0.532517	3.85302	2.06466	0.560939	238.002	0.139907
14835573	0.58472	5.42924	2.1763	1.51589	115.619	0.124134
14874922	0.388	4.02986	2.69011	0.700537	201.836	0.149922
14904167	0.291832	2.88929	2.80919	0.688627	152.223	0.131964
14954687	0.40971	2.4425	2.09747	0.461751	290.279	0.12132
15014289	0.32692	2.70773	2.5407	1.74997	80.916	0.148544
15109972	0.304785	2.07939	2.37138	0.863192	255.042	0.139138
15117912	0.562329	6.6782	2.46538	2.29609	279.357	0.145778
15282922	0.381425	2.75554	2.31282	0.651641	154.063	0.129244
15333371	0.3549	4.50222	3.01065	1.04113	215.508	0.152431
15432569	0.489293	3.62381	2.15934	0.865049	129.15	0.121588
15656955	0.532332	5.38219	2.36828	0.725103	261.456	0.128574
15946320	0.267278	2.90616	2.97445	0.810168	208.836	0.126743
15959649	0.39557	5.07101	2.93748	1.51604	233.22	0.11861
16048207	0.531084	3.80982	2.06014	0.569727	299.864	0.112951
16203474	0.480013	2.9956	2.03111	1.63895	261.332	0.147605
16206329	0.365876	3.37016	2.59256	0.797067	143.911	0.139024
16230545	0.603247	6.34829	2.24846	2.25891	148.217	0.124407
16573269	0.307274	3.08734	2.80009	0.421283	143.617	0.129567
16629006	0.409428	2.21917	2.02023	0.666517	106.827	0.108421
16636804	0.414196	2.97264	2.2549	0.444112	98.1278	0.155774
16649516	0.31622	2.716	2.59871	0.582921	144.812	0.127456
16743183	0.482884	3.45355	2.13979	0.583104	121.618	0.122087
16900188	0.307741	2.63087	2.60738	0.312686	223.059	0.122112
17065741	0.452477	3.03405	2.13347	0.467125	102.955	0.134173
17082849	0.515244	3.4269	2.02595	1.29428	73.5133	0.144278
17093971	0.496759	4.07322	2.23757	1.41318	223.188	0.143193
17282828	0.424831	4.89252	2.73938	0.795274	95.2308	0.161531
17329471	0.32516	3.67175	2.91559	1.52581	222.621	0.131952
17362772	0.612156	7.18179	2.33034	0.751674	282.642	0.139273
17398710	0.563708	5.95893	2.34358	0.773981	289.144	0.127804
17487278	0.337608	3.90115	2.92138	3.08984	164.777	0.12853
17519883	0.256176	2.0058	2.58927	0.49255	163.525	0.127405
17575547	0.228312	2.79914	3.2158	0.756771	148.583	0.140143
17684404	0.435663	2.67454	2.08442	0.670539	130.256	0.127255
17712162	0.411763	4.49302	2.70166	0.859091	185.914	0.129177
17730404	0.307873	2.13329	2.38247	1.20443	222.189	0.144927
17853731	0.446266	3.12718	2.18188	0.728665	257.42	0.111723
17927902	0.30671	2.91226	2.73189	0.516728	172.058	0.120659
17977406	0.363473	2.61413	2.3363	0.923143	176.078	0.12848
18084743	0.250066	2.34929	2.81527	1.51031	227.131	0.116017
18132123	0.360004	2.11019	2.15214	0.925441	96.6635	0.124388
18140408	0.496266	5.33561	2.50923	0.786696	17.2719	0.141343
18162288	0.441879	3.29618	2.2458	1.93901	285.679	0.122295
18180585	0.378565	4.43113	2.85557	0.357766	126.833	0.13694
18218427	0.422332	2.68039	2.13227	0.381921	75.7851	0.147658
18374015	0.599547	7.24479	2.39151	1.36686	236.321	0.119947
18431193	0.51984	7.20889	2.74571	0.678579	196.032	0.130744
18574105	0.5568	4.00642	2.01726	1.21095	138.742	0.151541
18936638	0.471614	4.06581	2.33143	0.698747	200.115	0.129488
18955417	0.337062	2.08516	2.23192	0.469272	209.148	0.11201
19006913	0.411277	3.56447	2.44596	0.560723	224.375	0.128876
19009077	0.280705	2.46027	2.68042	0.459267	138.571	0.146219
19028847	0.307882	4.01128	3.14606	0.992117	162.902	0.156329
19039617	0.45136	3.2685	2.20302	0.295026	346.507	0.140886
19063189	0.556023	6.85581	2.52083	4.57606	40.0532	0.136762
19138183	0.359389	3.92792	2.80746	4.065	71.3992	0.125609
19161250	0.510876	4.61676	2.30229	1.67201	127.221	0.115469
19181056	0.388111	2.48798	2.19154	0.398658	215.071	0.137492
19205790	0.484298	3.74028	2.20525	0.842384	223.96	0.110461
19338080	0.401339	2.89891	2.28134	1.66429	110.979	0.132486
19421745	0.458046	6.65732	2.95925	0.469924	207.851	0.126697
19439517	0.536272	3.83066	2.04763	0.444458	74.3484	0.125783
19510194	0.447334	3.35876	2.24276	0.420403	115.08	0.142604
19523335	0.332544	2.18323	2.29398	0.856969	233.925	0.113658
19545416	0.369944	3.92953	2.75186	1.08972	127.346	0.131387
19563260	0.331392	2.36105	2.37569	0.428514	127.13	0.134249
19594759	0.518393	3.81476	2.10342	0.442688	312.795	0.15219
19646135	0.425762	4.07818	2.526	0.460617	312.574	0.152018
19724918	0.654639	7.10268	2.15114	3.33313	316.24	0.137838
19771847	0.449127	2.91152	2.10984	0.32614	332.743	0.13014
19852265	0.420597	4.09152	2.55278	1.32626	262.479	0.135359
19858286	0.354337	2.29473	2.24983	0.671993	155.617	0.159638
19902934	0.453447	6.05451	2.85972	1.15731	201.024	0.134547
19929135	0.538005	5.21506	2.31487	0.506935	68.3206	0.14212
19984446	0.304258	2.3644	2.50738	0.330369	174.494	0.116935
20131727	0.436923	3.30634	2.26745	0.387335	231.849	0.149769
20147354	0.632781	6.6109	2.17182	0.81711	52.1636	0.135511
20203953	0.55662	4.34464	2.08353	0.677766	65.0663	0.134571
20442041	0.38481	3.74199	2.61965	1.2446	248.022	0.139654
20522042	0.688796	7.49372	2.06545	1.24443	244.714	0.125665
20669524	0.446183	3.28378	2.22627	0.437793	131.307	0.140865
20691335	0.414938	2.71314	2.1693	0.363145	275.873	0.11755
20767126	0.371698	2.77232	2.35935	0.423634	261.577	0.136714
20886000	0.29672	2.99834	2.82612	0.57964	244.169	0.1174
20967275	0.366664	3.24258	2.54582	0.568489	242.859	0.144897
21054958	0.552534	4.149	2.05921	1.11117	296.35	0.138378
21252455	0.630436	8.14996	2.37863	2.38123	354.817	0.136114
21282274	0.320061	2.584	2.52385	0.244291	165.943	0.139794
21289793	0.430497	2.93887	2.18361	0.754047	197.765	0.136755
21323161	0.484786	3.42854	2.12699	1.26082	260.258	0.131071
21460928	0.401934	3.63623	2.50817	1.76937	124.194	0.141837
21673831	0.314744	3.30394	2.84141	2.32003	201.273	0.137428
21865633	0.31893	2.59728	2.53511	0.598951	140.539	0.138094
21944441	0.379363	3.36583	2.52722	1.49817	184.346	0.127751
22101694	0.385065	2.98576	2.37666	1.48223	114.112	0.150622
22250732	0.468843	4.73634	2.49923	1.67835	137.873	0.129558
22409404	0.452982	2.83454	2.07444	0.65846	133.41	0.123512
22434042	0.494255	3.64286	2.1466	1.35029	132.994	0.123219
22490755	0.397591	4.29292	2.71749	1.73245	136.698	0.14976
22539254	0.495156	3.29587	2.05929	0.698147	137.493	0.145127
22954264	0.528665	4.49864	2.21159	2.25814	130.715	0.113134
22960992	0.484931	4.51774	2.38303	0.593464	254.564	0.137938
23017790	0.572723	4.82799	2.11713	0.794471	35.979	0.141954
23056803	0.421631	3.63914	2.42328	0.534839	82.2521	0.130715
23066604	0.278336	2.44003	2.68455	0.562262	140.825	0.137998
23211742	0.425851	3.2577	2.29619	1.22668	232.652	0.123757
23280862	0.398772	4.69778	2.82191	0.308766	21.1615	0.126271
23291226	0.381494	3.15002	2.44691	1.29191	268.389	0.119169
23367901	0.508162	4.47485	2.28286	1.64993	100.019	0.109238
23504761	0.361725	2.82476	2.42172	0.758152	188.023	0.125367
23583188	0.289762	2.71269	2.74398	0.776028	144.894	0.121557
23794591	0.338756	2.17228	2.26287	0.273631	90.2758	0.131873
23840189	0.277782	2.29448	2.61645	0.335148	106.346	0.129862
23889131	0.222421	2.09934	2.86698	0.966912	195.282	0.129696
23921244	0.389	2.45243	2.1754	0.623532	209.949	0.117647
23989625	0.528958	4.41245	2.19309	0.598036	124.399	0.136776
24251397	0.591855	4.53297	2.00157	0.790073	3.73761	0.12989
24259617	0.596659	5.43394	2.13393	1.23611	319.51	0.125368
24314196	0.467241	4.6368	2.48341	2.74206	148.643	0.135371
24322412	0.39874	2.57891	2.18382	0.444239	149.907	0.136996
24468655	0.457168	3.25678	2.17884	0.702526	100.682	0.123426
24486446	0.346574	2.44275	2.34219	1.17251	142.77	0.14561
24503812	0.233699	2.08259	2.77654	0.834104	177.233	0.125955
24864507	0.404727	3.41747	2.43038	0.597947	123.641	0.143584
24945546	0.420039	4.03659	2.54043	1.57112	186.374	0.120952
24999798	0.3171	3.94083	3.06059	0.450324	126.232	0.124673
25091062	0.381911	2.9172	2.36676	0.251673	95.2466	0.123148
25450121	0.439843	2.66475	2.06737	1.93093	285.526	0.148258
25471411	0.534352	4.6411	2.21917	1.66635	139.642	0.127336
25676062	0.398134	2.7407	2.24132	0.726066	240.274	0.136871
25702100	0.308147	2.69172	2.63131	1.16794	139.469	0.129371
26039474	0.401701	3.60572	2.50015	0.675188	117.637	0.134046
26109017	0.304259	2.50616	2.57121	0.220152	131.064	0.143311
26161226	0.391786	4.01028	2.6657	0.428667	87.5591	0.130008
26161482	0.476842	4.78642	2.47622	1.79834	81.2599	0.1146
26173500	0.405271	3.35271	2.4084	0.535375	198.346	0.144049
26187710	0.662588	8.2811	2.25773	2.29007	124.233	0.138196
26554427	0.422816	3.81892	2.4685	1.14875	232.808	0.124532
26578901	0.662584	6.5695	2.05567	2.20404	129.461	0.126364
26751912	0.398921	2.64346	2.20531	0.914618	114.659	0.148406
26905555	0.470372	4.18024	2.36372	0.633695	104.142	0.130225
26976544	0.348044	2.67671	2.42783	0.477953	188.848	0.154718
27217201	0.399775	2.53273	2.16402	0.458362	130.234	0.150163
27296519	0.365098	2.72173	2.36926	1.83517	115.067	0.131505
27441591	0.571795	8.4712	2.68779	2.80042	87.4476	0.113213
27548546	0.456439	3.87187	2.34334	0.320223	61.4422	0.143041
27758025	0.430309	3.33373	2.30085	0.443492	129.542	0.144301
27880160	0.340078	3.59115	2.8016	0.289732	199.023	0.137655
28126065	0.322248	3.43218	2.84586	0.908893	196.736	0.116996
28126354	0.483822	5.33891	2.56443	3.24255	300.124	0.122127
28186876	0.419506	5.20136	2.84214	1.42425	236.283	0.13623
28279648	0.302314	3.71196	3.07357	1.16647	185.361	0.146919
28304308	0.184615	2.14569	3.21825	2.22358	217.877	0.11117
28370571	0.6304	7.03644	2.23736	2.05288	132.169	0.162856
28576373	0.316092	2.12739	2.34163	0.373881	177.278	0.133696
28767249	0.518384	6.66315	2.65911	3.35305	140.536	0.120518
29061362	0.522768	6.95889	2.68943	0.53801	98.6821	0.117067
29072271	0.626165	6.29589	2.15386	1.25715	79.484	0.134025
29391525	0.377802	3.2572	2.49892	1.56161	108.482	0.129642
29467184	0.439388	4.763	2.63769	0.585474	149.995	0.14538
29573995	0.547644	5.12663	2.26162	0.849498	97.0263	0.143068
29629187	0.389219	2.34268	2.13462	0.3941	197.505	0.115761
29647808	0.270888	2.32859	2.67356	0.404944	183.915	0.126581
29911268	0.43514	2.95377	2.17132	0.406699	77.1724	0.14433
30145832	0.500608	3.30948	2.04494	0.678963	252.81	0.139581
30210170	0.497737	3.29657	2.05107	0.423129	217.672	0.148621
30245817	0.519306	6.9372	2.70217	1.32363	272.568	0.126401
30248390	0.409595	4.06783	2.59689	2.85224	84.1815	0.147739
30311778	0.261547	2.32702	2.72955	1.26143	147.572	0.147413
30324584	0.505006	3.48571	2.0729	0.823584	224.901	0.161172
30365086	0.574581	6.64445	2.40829	1.16681	141.479	0.122745
30664485	0.42069	2.99112	2.2359	0.259856	338.599	0.11506
30687017	0.411111	2.26118	2.02961	0.535603	226.398	0.127753
30699235	0.523852	3.90351	2.10437	0.646158	37.6188	0.129948
30779365	0.489386	3.10949	2.03094	1.7422	271.042	0.135295
30781709	0.477471	5.93693	2.71616	1.59963	253.206	0.137279
30821706	0.553739	6.28473	2.43828	0.795198	288.647	0.144626
30886619	0.467121	2.98539	2.07026	1.73149	247.111	0.130494
31125121	0.32487	4.14261	3.08047	1.91569	213.251	0.136092
31330896	0.322316	3.54445	2.88664	1.61522	187.856	0.150571
31389031	0.749635	9.50963	2.01404	7.72762	92.0115	0.121293
31410514	0.300058	3.08131	2.84044	0.51101	119.009	0.137286
31507332	0.20712	2.27704	3.09792	0.365185	181.917	0.143356
31521947	0.271209	3.04873	3.01212	0.260522	213.075	0.139346
31551687	0.48467	3.79744	2.21766	0.530168	230.646	0.118231
31703580	0.544818	4.42504	2.13947	1.55001	124.029	0.124504
31820081	0.455428	3.79194	2.3269	0.451748	133.812	0.136993
31954002	0.367301	2.49324	2.27489	0.548034	257.06	0.134175
31975976	0.750637	10.7549	2.11024	4.46841	306.042	0.137631
32058141	0.429282	3.44208	2.33591	0.625698	158.942	0.14515
32195092	0.497631	7.0743	2.83231	0.777192	104.852	0.127752
32314104	0.409531	2.7277	2.1939	1.25305	129.95	0.118541
32331403	0.353333	3.90988	2.83481	0.594498	128.679	0.12894
32340326	0.2664	2.82482	2.94265	1.38016	135.038	0.136871
32447981	0.589466	4.71991	2.04145	1.10214	322.428	0.142017
32480760	0.30391	2.86846	2.72954	0.67758	198.631	0.164265
32505197	0.560712	7.1347	2.54362	3.14028	247.601	0.140912
32587813	0.357845	2.58035	2.34751	1.0612	232.978	0.121259
32605716	0.509628	5.1965	2.42497	0.798439	294.383	0.130324
32653974	0.401193	2.83387	2.26055	1.01584	242.763	0.13371
32761478	0.410065	2.6191	2.15599	0.408359	136.727	0.135021
32814844	0.355646	3.24717	2.60068	0.614906	173.547	0.125104
32888084	0.484079	4.48929	2.38011	0.45583	44.2935	0.149646
32909416	0.661143	7.66931	2.19342	2.50283	254.723	0.150535
32987089	0.427831	4.23834	2.55902	0.65318	143.548	0.128478
33041932	0.324213	3.09864	2.70908	0.584593	157.561	0.144077
33150441	0.503858	3.67202	2.1204	0.476861	5.64916	0.122678
33206407	0.361054	2.70568	2.38086	0.236646	63.3676	0.12864
33274140	0.391795	2.4841	2.17636	0.400289	260.244	0.124726
33294703	0.425728	2.816	2.16307	0.371857	85.6663	0.144727
33413260	0.493049	3.33881	2.07685	0.624914	195.769	0.123356
33459087	0.23685	2.02883	2.72349	0.418318	200.136	0.150507
33572503	0.452784	3.56374	2.27757	3.26749	75.6776	0.146705
33648228	0.346494	2.39081	2.32153	0.355347	126.318	0.133169
33666535	0.502881	3.24183	2.02114	0.99233	253.688	0.136022
33707463	0.525982	5.67635	2.44865	0.485678	59.4113	0.13041
33847415	0.45427	3.39615	2.22716	0.544865	138.178	0.143358
33875742	0.36831	2.67921	2.33997	0.571134	201.292	0.122264
33891997	0.489507	4.03367	2.25542	0.712307	190.877	0.142554
33896185	0.36225	2.50023	2.29827	0.411362	149.596	0.150588
33907169	0.46448	3.75187	2.28168	1.56365	238.655	0.127469
33955038	0.556708	7.1945	2.57082	1.87679	143.814	0.132521
34085563	0.562045	4.57835	2.109	1.54041	263.088	0.133553
34124080	0.345638	2.39184	2.32563	0.318074	93.3018	0.108441
34222058	0.386216	2.54974	2.22091	0.705286	157.089	0.146814
34412404	0.73272	8.81036	2.0234	1.95629	124.337	0.144315
34507066	0.484453	6.31541	2.75701	2.05082	83.3186	0.144364
34550844	0.319941	3.02102	2.70218	0.344093	199.49	0.120722
34607710	0.454038	4.72342	2.56126	1.0116	204.878	0.143197
34641819	0.486927	3.29438	2.08605	0.506701	259.871	0.128989
34749402	0.503652	3.46577	2.07264	0.779586	291.699	0.126742
34752800	0.593552	5.75268	2.19536	1.18497	243.675	0.13938
34852872	0.583657	4.74259	2.0648	0.609495	147.979	0.153364
34913118	0.640381	5.71731	2.02262	1.0534	160.664	0.112119
34923864	0.533832	3.84568	2.05878	0.658849	131.528	0.116692
35044896	0.331789	2.16979	2.29133	0.94918	100.909	0.134228
35210531	0.316026	3.45341	2.89042	0.506164	133.617	0.127832
35398328	0.508261	3.96447	2.17162	0.740737	213.134	0.130671
35739985	0.468348	3.37768	2.1713	0.404558	60.5587	0.122816
35818805	0.507783	6.09259	2.60503	0.560632	329.099	0.147172
35844841	0.51469	4.66466	2.29755	1.47246	269.511	0.118791
35877444	0.627956	6.79894	2.21551	1.4707	263.969	0.143539
36040816	0.340163	3.53612	2.78201	0.385868	237.112	0.145392
36052690	0.392428	3.52963	2.51894	0.373543	243.173	0.118516
36101926	0.451552	2.88648	2.09433	0.442511	277.708	0.143709
36108912	0.572281	4.67756	2.09196	0.833143	85.5257	0.140623
36113421	0.328008	3.73791	2.92202	1.09151	215.532	0.143456
36253592	0.265834	2.62789	2.8527	0.466633	118.475	0.139125
36317192	0.636358	6.6748	2.1667	1.47329	41.4156	0.13237
36372568	0.53857	4.0476	2.08523	1.27141	218.721	0.131377
36415893	0.257391	2.87603	3.02953	2.36424	110.242	0.126648
36501833	0.351451	3.14842	2.58655	1.70174	200.66	0.143662
36567181	0.481182	6.25157	2.76059	1.16764	271.936	0.12086
36616660	0.586073	6.30271	2.30906	1.22054	218.326	0.137745
36668399	0.500363	4.67016	2.35451	0.900406	121.271	0.119353
36680346	0.603533	7.57779	2.42038	1.09572	119.646	0.131467
36751108	0.602795	5.54648	2.12958	1.09449	119.019	0.151459
36899815	0.49881	3.57745	2.11538	0.441644	180.711	0.130013
37008867	0.479368	3.0305	2.04248	0.588355	209.54	0.129061
37102862	0.459812	4.37203	2.45288	1.04711	90.1954	0.121367
37162625	0.539694	3.74371	2.01826	0.623917	167.677	0.126543
37201767	0.21709	2.25026	2.99927	1.48431	140.167	0.135535
37251741	0.513552	3.70469	2.09511	0.862072	104.421	0.140123
37383731	0.642225	6.46783	2.11742	4.68242	108.417	0.122937
37463387	0.396898	2.41763	2.13402	0.278859	298.891	0.120658
37786965	0.352412	2.92032	2.49934	0.257535	246.361	0.130484
38039004	0.360207	3.37838	2.62315	0.400658	216.73	0.133626
38066247	0.323887	3.85467	2.98779	0.537783	148.463	0.127264
38092162	0.284655	2.52947	2.69016	1.18338	216.686	0.152162
38108901	0.434264	2.79211	2.1255	0.400424	8.70239	0.144185
38174809	0.320329	4.3318	3.17356	1.4868	185.236	0.115894
38274110	0.51645	3.87196	2.12265	0.704946	82.5143	0.137212
38309956	0.352114	3.68237	2.76692	0.701074	110.708	0.138791
38370942	0.439077	2.58555	2.04533	0.490058	126.045	0.141002
38407479	0.484743	3.76808	2.21034	0.577188	104.276	0.133795
38618689	0.528228	6.65195	2.61177	0.764055	102.668	0.123747
38763973	0.411795	2.89626	2.23994	0.292899	111.228	0.130873
38780670	0.280111	2.89625	2.88509	0.497697	220.659	0.156476
39178300	0.234262	2.80882	3.172	1.95818	118.213	0.151112
39185613	0.435882	2.58119	2.05448	1.14668	105.8	0.139648
39345557	0.356282	3.2789	2.60855	1.48499	156.565	0.129297
39519360	0.506753	4.32858	2.25689	1.01299	143.085	0.116348
39674028	0.310135	2.43587	2.50972	0.396412	244.545	0.130798
39688197	0.477945	4.11186	2.31769	1.23482	256.323	0.111244
39732111	0.315574	3.77869	3.01258	0.428979	134.241	0.139941
39812436	0.301427	2.29682	2.49065	0.618546	135.469	0.136142
39906233	0.448962	2.98412	2.13141	0.429101	275.856	0.140795
39944756	0.240878	2.29734	2.84963	0.623546	177.44	0.13557
40113150	0.395763	3.13519	2.38055	1.2137	173.378	0.134363
40159616	0.38137	2.74629	2.3098	0.349864	135.133	0.127012
40200551	0.35332	2.4544	2.31789	0.995293	128.335	0.134794
40358053	0.437253	4.24924	2.51975	0.885762	95.669	0.139876
40366877	0.536242	3.83716	2.0491	0.637736	237.607	0.140294
40461974	0.521009	6.00931	2.53081	1.31714	113.826	0.139512
40594079	0.516145	4.46291	2.25034	0.593277	328.688	0.137098
40738752	0.279401	2.64623	2.77582	1.52465	261.76	0.144625
40833674	0.377356	3.64375	2.62537	0.298605	216.15	0.119323
40864692	0.499811	7.24608	2.85164	1.42045	141.918	0.127128
40941318	0.42168	3.88544	2.4918	1.16546	279.26	0.135404
40999497	0.337376	2.32758	2.33491	0.639579	245.177	0.112821
41030696	0.461676	2.84711	2.04942	1.73659	106.73	0.132544
41150901	0.295263	2.41118	2.57592	0.852269	236.345	0.149209
41295663	0.481391	3.20722	2.08219	0.556618	220.566	0.140328
41321478	0.458667	3.22776	2.1656	0.636766	253.037	0.136679
41407953	0.361238	2.40408	2.26525	1.52464	254.631	0.146961
41445822	0.214226	2.0695	2.91054	1.0794	148.053	0.134972
41558047	0.465908	2.93301	2.05975	1.65068	108.617	0.132855
41560062	0.505102	4.64461	2.33047	1.48664	138.6	0.14651
41578566	0.396603	2.56758	2.18785	0.432993	131.486	0.135351
41586298	0.495214	3.18389	2.0312	0.686069	157.44	0.141014
41655461	0.443806	2.96149	2.14285	0.509951	153.239	0.130281
41902484	0.376743	4.14239	2.78087	0.380812	185.91	0.140485
41910079	0.515138	6.12278	2.57745	1.67635	90.5407	0.119032
41923948	0.334937	2.63848	2.47374	0.536074	115.66	0.142312
42128805	0.465459	4.28689	2.40904	1.4678	185.285	0.132152
42243734	0.218114	2.63238	3.21197	1.22913	174.277	0.150638
42333192	0.276307	3.32941	3.09848	1.97001	233.554	0.130706
42363192	0.319343	2.20808	2.36362	0.711001	122.469	0.107724
42734633	0.499513	5.61034	2.54982	1.30048	264.498	0.135071
42757235	0.514116	5.25848	2.41869	3.98505	271.886	0.122337
42780647	0.337969	3.31639	2.716	0.409843	134.252	0.152704
42842458	0.366596	3.60787	2.66721	0.429427	125.518	0.125868
42949172	0.506891	3.24613	2.00953	1.87212	81.7572	0.130722
43093275	0.3807	4.37635	2.82834	0.617003	216.77	0.137179
43137467	0.456357	3.42469	2.22712	0.479385	293.222	0.132365
43439819	0.381972	2.7018	2.29169	0.490737	89.4334	0.127369
43841915	0.420739	5.38448	2.87985	0.888386	202.506	0.131716
43843882	0.450512	3.78684	2.34502	0.615992	94.5882	0.153972
43887519	0.291229	2.03066	2.41297	0.731047	202.46	0.141129
43947593	0.397808	2.97716	2.32101	0.289047	22.0773	0.145479
43950059	0.360659	3.01199	2.49393	0.536027	238.6	0.121451
44024699	0.399053	4.4889	2.76411	1.13987	178.434	0.130228
44089993	0.510991	3.97027	2.16329	1.12151	226.661	0.146687
44094544	0.374314	4.25926	2.82841	2.01044	282.05	0.13422
44098053	0.592694	6.5988	2.32703	1.04574	117.195	0.132271
44110666	0.436637	4.70027	2.63529	0.996803	244.831	0.13778
44293433	0.407845	3.05947	2.30704	0.37271	321.284	0.151192
44318491	0.414789	2.91114	2.23328	0.299901	28.1621	0.134233
44350150	0.364533	2.37185	2.23943	0.618187	133.158	0.146059
44435165	0.370037	2.54544	2.28337	0.328768	271.763	0.132873
44593694	0.401927	3.20435	2.37665	0.424282	222.448	0.130324
44627396	0.35108	2.7462	2.44055	2.25023	81.5137	0.139028
44871835	0.283977	2.36733	2.61713	2.86333	69.4233	0.123734
44987160	0.346142	2.47855	2.35845	1.21721	115.469	0.121326
45057845	0.339743	2.96514	2.57736	1.49632	253.298	0.127159
45261916	0.53651	5.11372	2.30175	1.01138	111.474	0.113544
45348298	0.271937	2.2328	2.61883	1.0408	142.06	0.126594
45385430	0.33583	3.3583	2.74263	1.93443	163.439	0.132174
45528487	0.318664	3.65161	2.94752	1.42237	220.106	0.14597
45737953	0.564438	5.67615	2.29357	1.23254	234.192	0.145056
45792340	0.413382	3.51573	2.42269	1.03416	124.849	0.135707
45910530	0.338682	4.01689	2.95361	1.54537	112.741	0.140003
45986835	0.729541	8.7007	2.0263	1.65937	88.8386	0.149218
45994797	0.370532	2.45432	2.24717	0.328202	264.713	0.14793
46013591	0.373982	3.56459	2.61671	1.24012	183.262	0.133047
46326791	0.352474	3.0159	2.53393	1.53208	244.503	0.132252
46635006	0.273727	2.11289	2.54684	0.251023	171.399	0.14261
46640372	0.32224	2.63675	2.53499	0.974674	158.734	0.12622
46727912	0.377775	2.02324	2.05251	0.421416	110.321	0.149858
46847279	0.375825	2.72123	2.32375	0.497167	150.08	0.116343
46865110	0.429955	3.31075	2.29561	1.00186	272.473	0.135449
46867538	0.262597	2.27109	2.69403	0.844985	157.681	0.143567
46908581	0.318914	3.6214	2.93502	0.476248	135.869	0.12243
47366584	0.308327	2.05949	2.3453	1.46736	260.17	0.124445
47563174	0.418634	3.03319	2.25668	0.93992	133.914	0.135163
47749016	0.446116	4.54689	2.55453	2.51807	244.531	0.150618
47911097	0.386944	2.9187	2.34618	0.337669	302.118	0.145096
47942884	0.562089	4.43314	2.08185	1.5973	94.5184	0.13031
48031867	0.647423	7.68031	2.25009	0.841071	64.5898	0.113711
48104649	0.451781	2.73431	2.04898	0.363005	42.7364	0.140338
48202179	0.43541	2.41675	2.00352	0.373004	166.735	0.163059
48256209	0.320542	3.20516	2.77026	0.5471	145.126	0.123542
48259791	0.409535	3.58552	2.45966	0.645441	195.625	0.126521
48342437	0.375753	4.55065	2.90524	2.98466	196.135	0.117403
48463380	0.430194	2.68612	2.1067	0.611733	82.9561	0.124884
48558918	0.320506	2.60313	2.52965	0.768141	195.004	0.136084
48712074	0.570115	6.89051	2.46495	0.693069	287.778	0.147571
48750741	0.562419	5.46191	2.26493	3.412	254.26	0.117877
48766777	0.489695	3.38361	2.09913	0.482694	283.436	0.154341
48822713	0.434604	2.74413	2.10957	1.09583	125.038	0.143081
48837321	0.560054	6.25783	2.40751	1.0061	153.834	0.118718
48849555	0.332796	3.78984	2.91176	0.409872	105.221	0.141126
48868194	0.485027	4.44379	2.36611	1.10524	196.019	0.1275
49077753	0.36727	3.65088	2.67769	1.55642	130.396	0.142053
49346577	0.483858	3.17569	2.06589	0.61057	274.482	0.1157
49395050	0.434749	2.53631	2.04401	0.365283	149.18	0.132686
49430243	0.280586	3.1144	2.9775	1.96091	117.76	0.132347
49432344	0.43515	2.43867	2.01144	0.787161	112.864	0.140836
49466361	0.499338	5.21705	2.47209	1.69386	295.048	0.115879
49563089	0.425207	3.74971	2.43909	0.71116	252.227	0.111977
49729083	0.418011	2.84394	2.19998	1.86851	110.404	0.120505
49917282	0.247168	2.59667	2.96469	0.447778	220.214	0.133191
49918540	0.408727	3.36328	2.39702	1.07018	142.338	0.144169
50031617	0.410191	2.49107	2.1124	0.332209	257.448	0.143246
50044564	0.410831	2.88664	2.24054	0.283426	107.032	0.125787
50055798	0.416923	3.61466	2.43629	0.686966	225.044	0.133287
50112040	0.272715	2.36024	2.67856	1.69586	206.238	0.140077
50177652	0.298965	2.05558	2.38755	0.853851	157.777	0.140158
50227411	0.529784	6.21061	2.52837	3.09733	43.91	0.132629
50233301	0.56585	4.19625	2.02483	1.54673	260.204	0.12442
50269816	0.451611	3.63867	2.3019	0.759498	122.402	0.15347
50278644	0.322754	2.31149	2.39387	0.38648	199.887	0.144202
50443547	0.444151	3.02194	2.15923	0.420336	142.68	0.128041
50501629	0.40305	3.3272	2.41002	0.461283	279.336	0.146983
50524065	0.243148	2.04188	2.69001	1.67209	113.939	0.139364
50546533	0.245822	2.28966	2.81158	0.438498	177.234	0.143559
50588827	0.401591	5.00801	2.88838	1.83883	271.664	0.148807
50639345	0.319848	3.22474	2.78167	2.17831	216.121	0.149174
50866579	0.552685	4.83502	2.18942	1.73533	270.477	0.134839
50965776	0.334972	2.82922	2.54897	0.35349	215.964	0.118491
50972068	0.245051	2.37264	2.86181	0.751521	160.831	0.138247
50999578	0.762028	10.2469	2.01998	2.68089	350.655	0.130378
51190595	0.295296	2.87727	2.7833	2.31598	255.504	0.123048
51203214	0.638061	5.77419	2.03856	1.27537	82.2918	0.126142
51225664	0.395056	2.30553	2.10018	0.605993	232.759	0.141104
51298433	0.359582	2.7199	2.39259	0.407215	238.514	0.133043
51339717	0.287347	2.16801	2.50145	0.685769	194.86	0.151702
51426131	0.565544	4.36543	2.05764	0.619891	63.6975	0.142674
51468932	0.247253	2.05911	2.67379	1.07938	134.074	0.127426
51501858	0.418907	4.85622	2.75984	0.770103	263.631	0.136056
51560771	0.404669	4.73846	2.80202	0.276173	106.264	0.128998
51561673	0.456889	4.29511	2.44663	0.409591	226.914	0.106145
51602616	0.428277	3.00052	2.2104	0.324185	270.52	0.130543
51689291	0.40748	3.49303	2.44123	1.08418	217.641	0.123925
51710782	0.4251	2.57008	2.08712	0.842089	94.1278	0.117195
51756993	0.326895	2.20358	2.32759	0.700532	134.626	0.132909
51766626	0.392328	2.36989	2.13331	0.242733	311.546	0.144267
51768616	0.425989	4.45899	2.62464	0.620902	91.7981	0.12817
51806084	0.457953	4.7799	2.55694	0.662351	250.164	0.134575
51822860	0.67676	8.25771	2.19646	2.18898	20.5462	0.154507
51842934	0.552017	4.67668	2.16232	1.47464	263.181	0.13625
51963993	0.345592	3.33244	2.68153	0.29096	76.4472	0.12956
51969086	0.457737	4.52445	2.49805	0.444597	283.953	0.116773
52005887	0.305872	2.27495	2.45825	0.347847	145.653	0.12855
52077349	0.43899	3.13076	2.20937	1.81912	106.967	0.135092
52360953	0.270887	2.0804	2.54556	2.13835	119.491	0.121511
52380774	0.293911	2.81003	2.76244	0.401793	149.537	0.146485
52388283	0.59775	6.21306	2.24974	0.77026	193.012	0.13317
52617804	0.44871	2.97927	2.13089	2.23782	265.667	0.127988
52618619	0.417366	4.31064	2.62638	0.759828	174.431	0.132603
52635216	0.493821	6.16795	2.68377	0.722234	87.7167	0.119481
52894324	0.259341	2.04767	2.5939	0.963759	167.624	0.114846
52983316	0.445024	5.95382	2.88187	0.342259	245.15	0.12965
53104780	0.316452	3.14973	2.77198	0.787973	142.474	0.122989
53259784	0.520658	7.46425	2.78429	1.05444	93.4096	0.130465
53347041	0.545463	4.93732	2.23486	0.573292	245.318	0.103727
53361044	0.467478	3.21191	2.13053	0.686124	153.235	0.127016
53362353	0.382534	2.888	2.35415	0.324464	199.051	0.139305
53474845	0.372816	4.10397	2.79005	0.594943	130.227	0.138912
53510957	0.374203	3.3987	2.56206	0.419446	240.734	0.10998
53725400	0.446252	2.93672	2.12708	0.601824	80.1808	0.136998
53756063	0.349928	2.67358	2.41808	0.597293	115.663	0.140355
54001130	0.475013	3.94842	2.29001	1.4642	79.356	0.128984
54099500	0.280319	3.59972	3.18153	0.443681	137.33	0.136762
54146108	0.372172	2.00941	2.06642	0.441661	107.259	0.123485
54178677	0.531161	4.36282	2.17514	0.493315	22.8845	0.134678
54180198	0.520004	6.98602	2.70719	0.76194	192.063	0.114682
54458617	0.268935	2.33168	2.68677	0.315207	238.461	0.139108
54571587	0.394564	4.37508	2.75566	0.59946	79.3574	0.138034
54611528	0.361655	4.77497	3.05098	2.30171	119.654	0.145679
54678034	0.324134	3.65632	2.91621	0.319509	222.697	0.13675
54704638	0.412421	3.75939	2.49727	1.02381	247.868	0.127006
54734159	0.303322	2.26312	2.46543	0.306418	223.046	0.138226
54757784	0.522518	3.55504	2.03199	0.490229	266.337	0.120868
54819806	0.56124	5.33204	2.24695	2.00375	134.005	0.125226
54849862	0.438354	2.63775	2.06397	0.665355	206.725	0.13983
54853076	0.2493	2.44164	2.86926	0.49702	135.114	0.126885
54977634	0.438091	2.51346	2.02588	0.387945	289.794	0.126444
54988560	0.438635	3.21991	2.23633	0.403361	70.002	0.13091
55051611	0.415352	4.79631	2.76254	0.440562	223.036	0.129914
55074258	0.366177	3.47173	2.62481	1.46708	122.377	0.14364
55116295	0.506513	5.64803	2.52648	1.06214	88.4751	0.130483
55147475	0.542319	5.74585	2.39362	0.793795	144.286	0.126595
55527012	0.276804	3.40678	3.12748	1.63692	158.449	0.158318
55534433	0.475154	3.96941	2.29453	1.90147	118.051	0.127939
55656984	0.42866	2.65843	2.10324	0.754832	119.348	0.137895
55668221	0.584193	4.83659	2.07914	1.07793	104.328	0.125217
55756757	0.312178	2.9254	2.70663	0.908118	124.144	0.130572
55780976	0.516702	3.60154	2.06132	0.720679	206.319	0.131428
55811399	0.281528	2.50752	2.69808	0.561482	207.312	0.134893
55822426	0.392749	5.46833	3.05536	0.360849	57.1763	0.126441
56120702	0.305591	2.62357	2.61572	3.36299	79.6534	0.134044
56122847	0.369527	2.75733	2.36321	1.23399	245.736	0.125041
56224753	0.419767	3.19599	2.30175	1.10435	244.787	0.128351
56514296	0.247104	2.067	2.67923	0.672612	179.645	0.145391
56526736	0.409617	3.3262	2.3821	0.38813	205.201	0.144762
56691451	0.247433	2.1559	2.72718	1.0378	235.452	0.133204
56770570	0.362882	2.68178	2.36406	0.593138	206.035	0.139347
56843824	0.425019	3.22542	2.28994	1.08613	112.589	0.134309
56855947	0.318582	2.9879	2.69651	0.420395	219.92	0.136304
56865723	0.28081	2.76211	2.82036	0.569733	172.835	0.142011
57012854	0.39605	3.25358	2.41699	0.976756	237.234	0.123911
57042736	0.373408	2.04315	2.07577	0.921319	107.934	0.138576
57043022	0.333489	2.30079	2.34066	0.406391	182.357	0.139956
57129812	0.490958	4.58498	2.37364	0.552472	138.119	0.14416
57221438	0.350283	2.59849	2.38749	0.820793	148.051	0.125668
57246236	0.251409	2.03964	2.63695	0.55495	133.113	0.147196
57373419	0.413287	4.54095	2.7068	0.428682	188.625	0.143045
57471477	0.481301	3.16518	2.07159	0.960943	224.156	0.135596
57615757	0.326013	2.31333	2.37967	0.594835	146.302	0.162405
57649250	0.474995	4.02885	2.30941	0.523025	238.078	0.127856
57691436	0.233743	2.11011	2.79244	0.340659	186.612	0.134058
57717076	0.394735	2.65585	2.22546	0.348459	212.031	0.129413
57844663	0.686281	7.42943	2.06798	1.814	279.963	0.13724
58101181	0.43832	2.45709	2.00723	0.565576	118.494	0.130582
58146304	0.398699	2.20894	2.05226	0.616483	246.79	0.119943
58207407	0.44427	3.14212	2.19335	0.415837	216.906	0.134488
58285763	0.310634	2.52629	2.5469	0.297872	144.932	0.139609
58355869	0.484652	3.27668	2.08915	0.748998	129.06	0.136548
58379384	0.335826	2.13561	2.25921	0.629464	182.324	0.128334
58414052	0.263447	2.08384	2.58967	0.773203	135.23	0.109137
58517126	0.418539	3.10285	2.27838	0.875913	265.608	0.123582
58561722	0.476663	3.58586	2.19484	1.68506	113.103	0.14645
58637832	0.411955	5.139	2.86635	0.595876	275.289	0.137111
58782726	0.307019	3.90276	3.11277	0.7947	174.22	0.12032
58939930	0.369336	2.06558	2.09939	0.354208	259.002	0.130113
58968393	0.456533	3.00415	2.11105	0.403529	89.3511	0.13083
58988047	0.581268	4.80096	2.08299	0.645897	294.142	0.149815
59125285	0.439224	4.06768	2.46449	0.529506	133.891	0.149142
59268950	0.364831	4.78143	3.03393	0.603468	85.0821	0.140611
59435590	0.465911	5.05466	2.58354	1.85772	115.833	0.137369
59438663	0.317549	2.29446	2.41068	0.349667	150.841	0.135049
59448435	0.681195	7.58867	2.1052	1.89809	122.504	0.128521
59467061	0.279419	2.31014	2.61493	1.27494	122.772	0.120705
59518102	0.470316	3.29456	2.14261	0.639653	227.101	0.123405
59572220	0.558251	4.20384	2.05107	0.988156	137.824	0.132036
59614060	0.328997	2.5946	2.48438	0.497758	192.543	0.143305
59625161	0.393978	4.02156	2.65826	1.00631	154.377	0.142768
59720914	0.332523	2.5561	2.45178	1.86477	122.82	0.132962
59819937	0.263452	3.3521	3.20187	1.88472	222.867	0.123885
59909168	0.349368	2.30924	2.27615	0.420724	142.688	0.126757
59927785	0.349111	2.18464	2.22563	0.282198	257.859	0.136166
59942736	0.422455	2.44724	2.05572	0.643709	121.466	0.120456
60204092	0.449161	6.68711	3.01351	1.73713	214.861	0.145738
60266544	0.659827	6.60289	2.06989	2.40647	66.2736	0.14278
60314898	0.364393	3.20296	2.54307	1.69672	254.574	0.154746
60380703	0.563512	6.55479	2.44082	0.749647	102.51	0.132999
60671637	0.228912	2.00575	2.76345	1.52676	206.273	0.129702
61172592	0.416992	5.52571	2.93359	0.285723	26.066	0.144997
61265164	0.417787	2.78611	2.18242	1.27896	241.524	0.126549
61299698	0.383114	2.07934	2.05633	0.745363	107.25	0.129297
61389112	0.504176	6.53737	2.70359	0.69497	11.7664	0.132854
61550778	0.392695	2.32031	2.11393	0.516245	204.494	0.134631
61815050	0.422683	2.49747	2.07159	0.305804	230.705	0.135592
61830984	0.301662	2.35725	2.5174	1.31226	129.828	0.126263
61887100	0.290759	2.17092	2.48512	1.25241	218.675	0.129888
61900890	0.298473	2.95079	2.79568	1.05538	176.89	0.129872
61982876	0.599844	4.68451	2.00134	0.655161	220.228	0.132198
62170237	0.456149	3.59635	2.27335	0.665138	98.3558	0.12653
62178415	0.330537	2.16487	2.29456	0.437765	127.285	0.138283
62419253	0.431674	3.6949	2.39685	0.485865	126.23	0.138464
62449799	0.33548	2.61212	2.46057	1.26271	198.128	0.143297
62544870	0.520163	5.85481	2.50624	1.81601	111.629	0.135359
62565123	0.484761	4.43368	2.3649	3.02353	82.8878	0.131539
62665673	0.40794	4.96011	2.84238	0.305235	106.553	0.13572
62698027	0.389788	3.59222	2.55028	0.762801	157.297	0.141721
63005770	0.225954	2.23075	2.91927	1.67369	231.333	0.140017
63154917	0.42965	5.59113	2.88139	0.362313	245.775	0.126978
63302115	0.33063	2.22257	2.31948	0.240987	261.381	0.132731
63380904	0.299906	2.38513	2.53932	0.381269	222.132	0.11582
63390531	0.399756	4.11881	2.65798	0.356118	83.0903	0.121814
63391090	0.438278	2.78098	2.10822	0.36643	283.972	0.147585
63501725	0.439059	3.09484	2.1987	0.705228	111.556	0.117974
63602261	0.543072	4.06605	2.07398	0.891771	214.552	0.122752
63611951	0.446627	3.44601	2.26935	0.431613	207.102	0.114703
63784483	0.615614	7.30437	2.33262	1.42829	269.151	0.131209
63846690	0.49283	4.50563	2.34884	0.464472	114.811	0.132655
64403224	0.428819	2.92405	2.1852	0.610003	123.236	0.145482
64477488	0.349743	3.07439	2.56834	0.965889	136.365	0.118768
64554013	0.269564	2.34412	2.68927	0.87672	218.516	0.129148
64648287	0.500658	5.59059	2.54091	1.35423	190.202	0.132081
64653413	0.436807	3.87504	2.42416	0.71813	200.456	0.139227
64675485	0.3172	2.73934	2.60327	0.799165	201.349	0.114569
64861435	0.231396	2.3305	2.93621	1.20976	204.045	0.142921
64951700	0.329468	4.29233	3.10098	0.428273	195.36	0.125448
64957558	0.272819	2.56256	2.77681	2.54423	231.529	0.144127
65130181	0.421961	2.45591	2.06025	0.549193	98.9191	0.150172
65137766	0.394089	3.91776	2.62752	0.436724	229.927	0.143623
65220655	0.505043	3.55522	2.08915	0.953661	207.952	0.122604
65306116	0.262769	2.63748	2.87752	0.787223	195.709	0.138587
65374635	0.480986	5.34758	2.57889	0.858295	127.83	0.141214
65385029	0.500297	5.32966	2.49072	0.631893	358.991	0.139557
65402760	0.260547	2.09873	2.61471	0.430219	138.147	0.13571
65514142	0.628104	5.90736	2.09238	0.88102	281.29	0.145254
65545999	0.455125	2.96104	2.10364	1.34179	231.798	0.134531
65569612	0.353984	3.48451	2.69063	3.14312	271.138	0.120494
65661223	0.438255	2.59924	2.05231	0.850416	233.262	0.130909
65699074	0.397654	2.30127	2.08954	0.788796	117.544	0.133148
65721143	0.426862	3.31343	2.3085	0.622603	112.225	0.125337
65768309	0.364785	3.15514	2.52478	0.284974	223.369	0.124193
65872354	0.393207	2.07966	2.02229	0.777337	221.736	0.125151
66001033	0.316469	2.428	2.47477	0.440984	185.591	0.131293
66033730	0.480516	6.47719	2.80763	0.861816	113.309	0.136386
66247328	0.405435	3.71819	2.51654	1.30358	126.332	0.130924
66254988	0.700878	7.72906	2.04425	1.25766	144.053	0.147928
66360157	0.37927	2.93304	2.38341	0.655692	110.401	0.135576
66469662	0.538892	4.11919	2.0988	0.927253	255.069	0.129178
66506668	0.581235	5.98542	2.27874	0.59663	155.766	0.145277
66579535	0.26325	2.19985	2.65273	1.76517	255.861	0.108703
66646443	0.387924	2.226	2.09585	0.569909	126.276	0.139337
66673570	0.390732	2.38327	2.14396	0.237866	75.7357	0.154609
66705804	0.402799	4.24661	2.67889	0.282633	259.559	0.131918
66711544	0.325403	2.81485	2.59149	1.35345	185.347	0.15456
66722078	0.349249	3.67973	2.78149	3.95964	96.0207	0.133363
66927006	0.50562	4.99227	2.40034	0.943453	105.829	0.137071
66932070	0.334104	3.80861	2.91053	0.880353	202.754	0.135893
66997066	0.333531	3.92608	2.9539	0.897783	131.174	0.114013
67024515	0.586126	5.18585	2.13123	2.23649	100.237	0.106786
67040491	0.325393	2.05191	2.26592	0.462893	116.512	0.137448
67046562	0.440842	3.31924	2.2562	1.01548	147.793	0.132602
67150017	0.327257	3.06247	2.67878	0.600158	115.911	0.123763
67187757	0.376595	5.03613	3.03595	1.63369	255.562	0.112672
67204145	0.349757	2.37049	2.29943	0.816753	111.039	0.133046
67251294	0.466874	3.80516	2.28593	1.85446	139.548	0.109925
67276718	0.436504	3.54021	2.33463	0.476	255.975	0.142182
67305776	0.418136	3.82947	2.49184	1.18493	203.293	0.124921
67327939	0.499395	3.93331	2.19617	1.12008	278.048	0.128023
67378679	0.248006	2.39603	2.85403	0.32501	209.848	0.107785
67636254	0.633243	6.97734	2.21843	1.52016	319.693	0.147475
67647718	0.357193	2.89835	2.46906	0.370537	269.478	0.136321
67674403	0.35395	2.27958	2.24525	0.268067	105.127	0.142928
67790773	0.277364	3.50849	3.16563	0.338456	127.593	0.118571
67795945	0.307441	4.43323	3.29649	0.640974	190.424	0.134656
67817089	0.573906	6.83514	2.4403	0.604143	173.069	0.135702
68087637	0.309373	3.31606	2.878	1.30736	203.196	0.106541
68114407	0.382147	3.25732	2.47926	0.397716	144.149	0.145977
68223725	0.555232	7.44029	2.61541	0.956869	114.466	0.132427
68276745	0.383359	3.22635	2.46374	0.458214	132.65	0.135516
68297782	0.357863	2.94523	2.48297	0.416242	193.865	0.136495
68314070	0.532424	4.12597	2.12221	0.864594	278.365	0.126118
68400377	0.29379	2.77527	2.748	0.713614	166.567	0.139908
68450262	0.393265	4.37196	2.76142	0.300785	283.798	0.135355
68508217	0.319643	2.21169	2.36387	0.681229	155.868	0.138192
68525695	0.315342	2.81688	2.64504	0.999631	226.617	0.155688
68529576	0.527116	4.18672	2.15321	1.56743	257.117	0.114903
68612991	0.431581	2.85659	2.15468	2.12509	269.897	0.11923
68729565	0.364364	2.30659	2.21454	0.412912	112.816	0.143675
68781966	0.307278	2.58864	2.59155	1.06567	178.688	0.129427
68820059	0.472725	3.83286	2.27057	0.794953	180.243	0.123885
68846862	0.386242	5.21782	3.02848	2.12856	261.245	0.155645
68886485	0.342963	2.1272	2.22611	0.265518	256.144	0.144963
68914403	0.360203	2.3284	2.23966	0.827067	142.488	0.116198
68945238	0.48685	6.57076	2.79393	0.938809	137.534	0.12952
68997788	0.532428	5.96487	2.47358	1.03434	267.809	0.15132
69111184	0.29688	2.06034	2.4	0.299995	222.353	0.137765
69258951	0.549892	4.7753	2.1884	0.751907	137.411	0.128941
69282197	0.35485	2.7512	2.42534	0.8043	234.455	0.117522
69343582	0.408589	2.36855	2.07574	0.486919	127.523	0.137093
69345155	0.258282	2.67618	2.92671	0.885374	202.135	0.119261
69588815	0.425071	3.58607	2.39388	0.83357	126.857	0.12976
69628956	0.376322	2.70467	2.31577	0.394676	261.59	0.136174
69779136	0.514972	3.5121	2.04651	1.35131	129.432	0.149172
69855380	0.466322	2.89311	2.04728	0.834899	133.495	0.1472
69975419	0.33449	2.69975	2.50036	0.583755	98.7605	0.136389
69989213	0.472157	4.2058	2.36266	2.58313	278.509	0.128419
70023346	0.451828	3.16162	2.17166	0.635454	189.48	0.145526
70102142	0.634052	7.23356	2.24838	0.93223	290.97	0.124875
70104640	0.491459	4.45596	2.34333	0.790568	120.549	0.131685
70173298	0.342264	2.40804	2.3469	0.476678	212.499	0.14577
70187859	0.376812	4.45764	2.87273	0.471209	85.6223	0.137872
70230875	0.519274	4.11193	2.16495	1.74465	113.788	0.131284
70298860	0.382385	2.84538	2.34011	0.720022	123.296	0.108229
70535096	0.525187	4.01579	2.1239	0.953832	123.675	0.142942
70604918	0.450003	4.30192	2.47753	1.79988	286.81	0.145196
70685744	0.57223	5.18935	2.18166	1.19703	133.35	0.111813
70689232	0.282296	2.61142	2.74218	1.56405	171.237	0.125333
70716953	0.332944	4.54354	3.15964	0.654679	182.522	0.123849
70721284	0.500102	5.64395	2.55382	2.22654	110.061	0.134396
70796419	0.365412	3.51282	2.64213	0.330059	67.8023	0.138102
70822791	0.637115	5.73567	2.03647	1.16693	55.7924	0.147254
70872670	0.328107	2.44205	2.42511	0.831091	152.911	0.142384
70990951	0.294889	2.35177	2.55023	0.545848	129.537	0.125314
71044407	0.379852	2.64786	2.28106	0.359308	94.6538	0.143756
71119461	0.327698	3.70473	2.9122	0.451074	109.002	0.147784
71250127	0.493083	6.19566	2.69255	1.16589	241.138	0.118038
71256944	0.56993	4.57582	2.08165	0.758805	64.3702	0.117889
71470365	0.388759	3.42073	2.50174	1.63931	161.417	0.128143
71499415	0.400255	3.4129	2.44832	0.559538	193.132	0.132269
71646348	0.292228	2.63492	2.69482	1.40178	180.91	0.125112
72222534	0.347894	2.97701	2.54176	0.364126	172.123	0.117324
72245722	0.308375	3.08602	2.79315	0.458406	176.442	0.124004
72262417	0.59957	4.95293	2.04651	0.7939	111.41	0.115813
72346327	0.499588	4.70022	2.36396	2.28241	225.241	0.12629
72354178	0.364797	3.07969	2.49857	0.71229	112.513	0.143913
72500369	0.483852	4.76343	2.44166	3.12902	162.187	0.104314
72558391	0.40942	2.308	2.05173	0.502018	257.575	0.15657
72563586	0.365157	2.46292	2.27206	0.248808	115.858	0.148557
72612510	0.438187	4.15859	2.49242	0.450517	113.14	0.137835
72832012	0.421988	2.68692	2.13558	0.333304	83.4775	0.123
72861544	0.510314	3.91271	2.15288	0.526986	60.7855	0.135957
72906799	0.379782	3.78895	2.65857	0.606166	196.019	0.14771
72908569	0.346371	2.93559	2.53378	0.79258	133.091	0.146401
72913412	0.670536	9.13072	2.3166	2.81633	131.833	0.131266
73005716	0.421646	2.79736	2.17195	0.446391	237.015	0.137632
73078422	0.299809	2.70011	2.68073	3.10495	242.905	0.137002
73090406	0.462778	3.65092	2.26242	0.577695	262.398	0.129286
73122020	0.490619	4.15822	2.27982	0.559045	0.890651	0.124749
73251714	0.240007	2.49333	2.96236	1.03887	142.435	0.135999
73318072	0.486013	4.31668	2.33355	1.24064	94.8402	0.126985